Date:	7/23/2012		
measured by:	Omer	 System:	ambient probe station
65 W - thirdround			
Voltage [V]	Current [A]	Voltage [V]	Current [A]
 	.5 Dark	 	.5 Light
-1.0000	-6.99E-5	-1.0000	-4.65E-3
-0.9900	-6.90E-5	-0.9900	-4.78E-3
-0.9800	-6.82E-5	-0.9800	-4.88E-3
-0.9700	-6.73E-5	-0.9700	-4.97E-3
-0.9600	-6.64E-5	-0.9600	-5.03E-3
-0.9500	-6.55E-5	-0.9500	-5.08E-3
-0.9400	-6.46E-5	-0.9400	-5.12E-3
-0.9300	-6.36E-5	-0.9300	-5.16E-3
-0.9200	-6.27E-5	-0.9200	-5.17E-3
-0.9100	-6.18E-5	-0.9100	-5.19E-3
-0.9000	-6.09E-5	-0.9000	-5.19E-3
-0.8900	-6.00E-5	-0.8900	-5.17E-3
-0.8800	-5.91E-5	-0.8800	-5.17E-3
-0.8700	-5.82E-5	-0.8700	-5.17E-3
-0.8600	-5.73E-5	-0.8600	-5.17E-3
-0.8500	-5.64E-5	-0.8500	-5.16E-3
-0.8400	-5.55E-5	-0.8400	-5.15E-3
-0.8300	-5.47E-5	-0.8300	-5.14E-3
-0.8200	-5.38E-5	-0.8200	-5.11E-3
-0.8100	-5.29E-5	-0.8100	-5.08E-3
-0.8000	-5.21E-5	-0.8000	-5.06E-3
-0.7900	-5.12E-5	-0.7900	-5.03E-3
-0.7800	-5.04E-5	-0.7800	-5.00E-3
-0.7700	-4.95E-5	-0.7700	-4.97E-3
-0.7600	-4.87E-5	-0.7600	-4.94E-3
-0.7500	-4.79E-5	-0.7500	-4.92E-3
-0.7400	-4.71E-5	-0.7400	-4.88E-3
-0.7300	-4.62E-5	-0.7300	-4.85E-3
-0.7200	-4.54E-5	-0.7200	-4.81E-3
-0.7100	-4.46E-5	-0.7100	-4.79E-3
-0.7000	-4.38E-5	-0.7000	-4.76E-3
-0.6900	-4.30E-5	-0.6900	-4.73E-3
-0.6800	-4.23E-5	-0.6800	-4.70E-3
-0.6700	-4.15E-5	-0.6700	-4.67E-3
-0.6600	-4.07E-5	-0.6600	-4.63E-3
-0.6500	-3.99E-5	-0.6500	-4.59E-3
-0.6400	-3.92E-5	-0.6400	-4.56E-3
-0.6300	-3.84E-5	-0.6300	-4.53E-3
-0.6200	-3.77E-5	-0.6200	-4.49E-3
-0.6100	-3.69E-5	-0.6100	-4.46E-3
-0.6000	-3.62E-5	-0.6000	-4.43E-3
-0.5900	-3.55E-5	-0.5900	-4.39E-3
-0.5800	-3.48E-5	-0.5800	-4.35E-3
-0.5700	-3.41E-5	-0.5700	-4.31E-3
-0.5600	-3.33E-5	-0.5600	-4.28E-3
-0.5500	-3.26E-5	-0.5500	-4.25E-3
-0.5400	-3.19E-5	-0.5400	-4.22E-3
-0.5300	-3.13E-5	-0.5300	-4.18E-3
-0.5200	-3.06E-5	-0.5200	-4.16E-3
-0.5100	-2.99E-5	-0.5100	-4.12E-3
-0.5000	-2.92E-5	-0.5000	-4.08E-3
-0.4900	-2.86E-5	-0.4900	-4.05E-3
-0.4800	-2.79E-5	-0.4800	-4.01E-3
-0.4700	-2.73E-5	-0.4700	-3.97E-3
-0.4600	-2.66E-5	-0.4600	-3.93E-3
-0.4500	-2.60E-5	-0.4500	-3.90E-3
-0.4400	-2.53E-5	-0.4400	-3.88E-3
-0.4300	-2.47E-5	-0.4300	-3.84E-3
-0.4200	-2.41E-5	-0.4200	-3.79E-3
-0.4100	-2.35E-5	-0.4100	-3.76E-3
-0.4000	-2.29E-5	-0.4000	-3.72E-3
-0.3900	-2.23E-5	-0.3900	-3.69E-3
-0.3800	-2.17E-5	-0.3800	-3.65E-3
-0.3700	-2.11E-5	-0.3700	-3.62E-3
-0.3600	-2.05E-5	-0.3600	-3.59E-3
-0.3500	-1.99E-5	-0.3500	-3.55E-3
-0.3400	-1.94E-5	-0.3400	-3.51E-3
-0.3300	-1.88E-5	-0.3300	-3.47E-3
-0.3200	-1.82E-5	-0.3200	-3.43E-3
-0.3100	-1.77E-5	-0.3100	-3.39E-3
-0.3000	-1.71E-5	-0.3000	-3.36E-3
-0.2900	-1.66E-5	-0.2900	-3.32E-3
-0.2800	-1.60E-5	-0.2800	-3.29E-3
-0.2700	-1.55E-5	-0.2700	-3.25E-3
-0.2600	-1.50E-5	-0.2600	-3.21E-3
-0.2500	-1.44E-5	-0.2500	-3.17E-3
-0.2400	-1.39E-5	-0.2400	-3.13E-3
-0.2300	-1.34E-5	-0.2300	-3.10E-3
-0.2200	-1.29E-5	-0.2200	-3.06E-3
-0.2100	-1.24E-5	-0.2100	-3.03E-3
-0.2000	-1.19E-5	-0.2000	-2.99E-3
-0.1900	-1.14E-5	-0.1900	-2.95E-3
-0.1800	-1.09E-5	-0.1800	-2.91E-3
-0.1700	-1.04E-5	-0.1700	-2.87E-3
-0.1600	-9.87E-6	-0.1600	-2.83E-3
-0.1500	-9.37E-6	-0.1500	-2.79E-3
-0.1400	-8.88E-6	-0.1400	-2.75E-3
-0.1300	-8.37E-6	-0.1300	-2.72E-3
-0.1200	-7.86E-6	-0.1200	-2.68E-3
-0.1100	-7.35E-6	-0.1100	-2.64E-3
-0.1000	-6.82E-6	-0.1000	-2.59E-3
-0.0900	-6.28E-6	-0.0900	-2.56E-3
-0.0800	-5.73E-6	-0.0800	-2.52E-3
-0.0700	-5.15E-6	-0.0700	-2.48E-3
-0.0600	-4.54E-6	-0.0600	-2.44E-3
-0.0500	-3.91E-6	-0.0500	-2.40E-3
-0.0400	-3.23E-6	-0.0400	-2.36E-3
-0.0300	-2.50E-6	-0.0300	-2.31E-3
-0.0200	-1.73E-6	-0.0200	-2.27E-3
-0.0100	-8.80E-7	-0.0100	-2.23E-3
0.0000	2.95E-8	0.0000	-2.19E-3
0.0100	1.02E-6	0.0100	-2.14E-3
0.0200	2.09E-6	0.0200	-2.10E-3
0.0300	3.26E-6	0.0300	-2.05E-3
0.0400	4.52E-6	0.0400	-2.01E-3
0.0500	5.88E-6	0.0500	-1.96E-3
0.0600	7.35E-6	0.0600	-1.91E-3
0.0700	8.90E-6	0.0700	-1.87E-3
0.0800	1.06E-5	0.0800	-1.82E-3
0.0900	1.23E-5	0.0900	-1.77E-3
0.1000	1.42E-5	0.1000	-1.72E-3
0.1100	1.62E-5	0.1100	-1.67E-3
0.1200	1.83E-5	0.1200	-1.61E-3
0.1300	2.06E-5	0.1300	-1.56E-3
0.1400	2.32E-5	0.1400	-1.51E-3
0.1500	2.62E-5	0.1500	-1.45E-3
0.1600	2.96E-5	0.1600	-1.40E-3
0.1700	3.37E-5	0.1700	-1.34E-3
0.1800	3.87E-5	0.1800	-1.28E-3
0.1900	4.49E-5	0.1900	-1.22E-3
0.2000	5.28E-5	0.2000	-1.16E-3
0.2100	6.30E-5	0.2100	-1.09E-3
0.2200	7.60E-5	0.2200	-1.03E-3
0.2300	9.29E-5	0.2300	-9.63E-4
0.2400	1.15E-4	0.2400	-8.91E-4
0.2500	1.43E-4	0.2500	-8.17E-4
0.2600	1.79E-4	0.2600	-7.39E-4
0.2700	2.24E-4	0.2700	-6.52E-4
0.2800	2.81E-4	0.2800	-5.57E-4
0.2900	3.50E-4	0.2900	-4.51E-4
0.3000	4.35E-4	0.3000	-3.33E-4
0.3100	5.35E-4	0.3100	-2.02E-4
0.3200	6.54E-4	0.3200	-5.42E-5
0.3300	7.89E-4	0.3300	1.09E-4
0.3400	9.43E-4	0.3400	2.89E-4
0.3500	1.12E-3	0.3500	4.88E-4
0.3600	1.31E-3	0.3600	7.03E-4
0.3700	1.52E-3	0.3700	9.35E-4
0.3800	1.75E-3	0.3800	1.18E-3
0.3900	1.99E-3	0.3900	1.45E-3
0.4000	2.25E-3	0.4000	1.73E-3
0.4100	2.53E-3	0.4100	2.02E-3
0.4200	2.82E-3	0.4200	2.33E-3
0.4300	3.13E-3	0.4300	2.65E-3
0.4400	3.44E-3	0.4400	2.99E-3
0.4500	3.77E-3	0.4500	3.33E-3
0.4600	4.11E-3	0.4600	3.68E-3
0.4700	4.47E-3	0.4700	4.05E-3
0.4800	4.83E-3	0.4800	4.42E-3
0.4900	5.20E-3	0.4900	4.81E-3
0.5000	5.58E-3	0.5000	5.20E-3
0.5100	5.97E-3	0.5100	5.60E-3
0.5200	6.37E-3	0.5200	6.00E-3
0.5300	6.77E-3	0.5300	6.42E-3
0.5400	7.19E-3	0.5400	6.84E-3
0.5500	7.61E-3	0.5500	7.26E-3
0.5600	8.04E-3	0.5600	7.70E-3
0.5700	8.47E-3	0.5700	8.14E-3
0.5800	8.91E-3	0.5800	8.58E-3
0.5900	9.36E-3	0.5900	9.04E-3
0.6000	9.81E-3	0.6000	9.49E-3
0.6100	1.03E-2	0.6100	9.96E-3
0.6200	1.07E-2	0.6200	1.04E-2
0.6300	1.12E-2	0.6300	1.09E-2
0.6400	1.17E-2	0.6400	1.14E-2
0.6500	1.22E-2	0.6500	1.19E-2
0.6600	1.27E-2	0.6600	1.23E-2
0.6700	1.32E-2	0.6700	1.28E-2
0.6800	1.37E-2	0.6800	1.33E-2
0.6900	1.42E-2	0.6900	1.38E-2
0.7000	1.47E-2	0.7000	1.43E-2
0.7100	1.52E-2	0.7100	1.48E-2
0.7200	1.57E-2	0.7200	1.54E-2
0.7300	1.63E-2	0.7300	1.59E-2
0.7400	1.68E-2	0.7400	1.64E-2
0.7500	1.74E-2	0.7500	1.69E-2
0.7600	1.79E-2	0.7600	1.75E-2
0.7700	1.85E-2	0.7700	1.80E-2
0.7800	1.90E-2	0.7800	1.85E-2
0.7900	1.96E-2	0.7900	1.91E-2
0.8000	2.02E-2	0.8000	1.96E-2
0.8100	2.08E-2	0.8100	2.02E-2
0.8200	2.14E-2	0.8200	2.07E-2
0.8300	2.20E-2	0.8300	2.13E-2
0.8400	2.26E-2	0.8400	2.18E-2
0.8500	2.33E-2	0.8500	2.24E-2
0.8600	2.39E-2	0.8600	2.30E-2
0.8700	2.46E-2	0.8700	2.36E-2
0.8800	2.52E-2	0.8800	2.42E-2
0.8900	2.59E-2	0.8900	2.48E-2
0.9000	2.66E-2	0.9000	2.54E-2
0.9100	2.73E-2	0.9100	2.60E-2
0.9200	2.80E-2	0.9200	2.66E-2
0.9300	2.87E-2	0.9300	2.72E-2
0.9400	2.95E-2	0.9400	2.79E-2
0.9500	3.02E-2	0.9500	2.85E-2
0.9600	3.10E-2	0.9600	2.92E-2
0.9700	3.18E-2	0.9700	2.99E-2
0.9800	3.26E-2	0.9800	3.05E-2
0.9900	3.34E-2	0.9900	3.13E-2
1.0000	3.42E-2	1.0000	3.20E-2
